Date and Time:                Thu Oct 8 14:41:49.194 2020
Software Version:             4.30.30034.0
Temperature (C):              -70
Model:                        DU940P_BU2
Data Type:                    Counts
Acquisition Mode:             Accumulate
Trigger Mode:                 Internal
Exposure Time (secs):         0.2
Accumulate Cycle Time (secs): 0.2
Frequency (Hz):               5
Number of Accumulations:      120
Readout Mode:                 Full Vertical Binning
Horizontal binning:           1
Extended Dynamic Range:       off
Horizontally flipped:         false
Vertical Shift Speed (usecs): 57.71
Pixel Readout Rate (MHz):     0.05
Baseline Clamp:               OFF
Clock Amplitude:              Normal
Output Amplifier:             High Sensitivity
Serial Number:                13925
Pre-Amplifier Gain:           1.000000
Spurious Noise Filter Mode:   No Filter
Photon counted:               false
Data Averaging Filter Mode:   No Filter
SR750:
Serial Number:                SR-1306
Wavelength (nm):              388
Grating Groove Density (l/mm):2401.21
Grating Blaze:                300
Accessory Output Port 1:      Off
Accessory Output Port 2:      Off
Accessory Output Port 3:      Off
Accessory Input Port:         On



381.70029	16048
381.70648	16652
381.71268	17104
381.71884	17352
381.72504	17599
381.73123	17484
381.73743	17281
381.74359	17009
381.74979	17027
381.75598	17152
381.76218	17176
381.76834	17329
381.77454	17324
381.78073	17432
381.78693	17559
381.79312	17720
381.79929	17865
381.80548	18105
381.81168	18312
381.81787	18200
381.82404	18122
381.83023	17726
381.83643	17742
381.84259	17585
381.84879	17609
381.85498	17465
381.86118	17686
381.86734	17624
381.87354	17779
381.87973	17726
381.88593	17801
381.89209	17806
381.89828	18214
381.90448	18473
381.91068	18570
381.91684	18573
381.92303	18276
381.92923	18006
381.93539	17947
381.94159	17822
381.94778	18014
381.95395	18274
381.96014	18657
381.96634	18584
381.97253	18547
381.9787	18265
381.98489	18161
381.99109	17997
381.99725	17776
382.00345	17878
382.00964	17737
382.01581	17638
382.022	17638
382.0282	17605
382.03439	17678
382.04056	17633
382.04675	17637
382.05295	17766
382.05911	18017
382.06531	18298
382.0715	18686
382.07767	18804
382.08386	18666
382.09006	18414
382.09622	17914
382.10242	17883
382.10861	17794
382.11478	17906
382.12097	17864
382.12717	17847
382.13333	17905
382.13953	17973
382.14569	18147
382.15189	18114
382.15808	18345
382.16425	18216
382.17044	18160
382.17664	17954
382.1828	17954
382.189	17800
382.19519	18054
382.20135	18111
382.20755	18112
382.21371	18346
382.21991	18234
382.2261	18189
382.23227	18187
382.23846	18316
382.24466	18558
382.25082	18773
382.25702	18903
382.26318	18758
382.26938	18674
382.27557	18239
382.28174	18187
382.28793	18136
382.2941	18163
382.30029	18501
382.30649	18458
382.31265	18451
382.31885	18179
382.32501	18201
382.33121	17955
382.3374	17972
382.34357	17963
382.34976	18071
382.35593	18098
382.36212	17981
382.36832	17989
382.37448	17815
382.38068	17997
382.38684	18070
382.39304	18167
382.3992	18497
382.4054	18740
382.41159	19047
382.41776	19059
382.42395	18899
382.43011	18439
382.43631	18391
382.44247	18085
382.44867	18149
382.45483	18081
382.46103	17926
382.46722	18139
382.47339	18163
382.47958	18415
382.48575	18637
382.49194	18653
382.49811	18670
382.5043	18468
382.51047	18356
382.51666	18137
382.52283	18335
382.52902	18421
382.53519	18214
382.54138	18409
382.54755	18372
382.55374	18534
382.55994	18472
382.5661	18586
382.5723	19146
382.57846	19368
382.58466	19360
382.59082	19126
382.59702	18851
382.60318	18675
382.60938	18550
382.61554	18495
382.62173	18592
382.6279	18715
382.63409	18674
382.64026	18576
382.64645	18276
382.65262	18169
382.65881	17977
382.66498	17923
382.67117	18155
382.67734	18092
382.68353	17913
382.6897	17919
382.69589	18155
382.70206	18217
382.70822	18261
382.71442	18587
382.72058	18926
382.72678	19126
382.73294	19065
382.73914	19056
382.7453	18766
382.7515	18369
382.75766	18114
382.76385	18216
382.77002	18035
382.77621	18115
382.78238	18330
382.78854	18349
382.79474	18515
382.8009	18665
382.8071	18773
382.81326	18605
382.81946	18597
382.82562	18257
382.83182	18232
382.83798	18097
382.84415	18340
382.85034	18380
382.85651	18624
382.8627	18570
382.86887	18607
382.87506	18976
382.88123	18970
382.88739	19208
382.89359	19133
382.89975	18907
382.90594	18587
382.91211	18435
382.9183	18414
382.92447	18560
382.93063	18819
382.93683	19142
382.94299	19129
382.94919	19075
382.95535	18876
382.96152	18730
382.96771	18652
382.97388	18493
382.98004	18297
382.98624	18362
382.9924	18539
382.9986	18597
383.00476	18490
383.01093	18494
383.01712	18721
383.02328	19042
383.02948	19158
383.03564	19084
383.04181	18875
383.048	18769
383.05417	18446
383.06033	18348
383.06653	18231
383.07269	18375
383.07886	18385
383.08505	18572
383.09122	18686
383.09741	19049
383.10358	19140
383.10974	19132
383.11594	18868
383.1221	18719
383.12827	18597
383.13446	18656
383.14063	18581
383.14679	18755
383.15298	18673
383.15915	18766
383.16531	18792
383.17151	19012
383.17767	19161
383.18384	19177
383.19003	19168
383.1962	18635
383.20236	18517
383.20856	18659
383.21472	18892
383.22089	19005
383.22708	19117
383.23325	19166
383.23941	18874
383.24561	18488
383.25177	18497
383.25793	18589
383.2641	18672
383.27029	19206
383.27646	19668
383.28262	19874
383.28882	19993
383.29498	19713
383.30115	19370
383.30731	19416
383.31351	19348
383.31967	19305
383.32584	19092
383.33203	18774
383.3382	18681
383.34436	18478
383.35052	18525
383.35672	18309
383.36288	18446
383.36905	18851
383.37524	19231
383.38141	19607
383.38757	19669
383.39374	19502
383.39993	19009
383.4061	19008
383.41226	18794
383.41843	18769
383.42462	18614
383.43079	18691
383.43695	18874
383.44312	19068
383.44931	19292
383.45547	19246
383.46164	19065
383.4678	18843
383.474	18627
383.48016	18719
383.48633	19024
383.49249	19198
383.49869	19298
383.50485	19090
383.51102	18808
383.51718	18571
383.52335	18327
383.52954	18450
383.53571	18626
383.54187	18844
383.54803	19154
383.5542	19702
383.56039	20454
383.56656	21046
383.57272	21573
383.57889	21635
383.58508	21292
383.59125	20472
383.59741	19742
383.60358	19190
383.60974	18969
383.61594	18789
383.6221	19106
383.62827	19329
383.63443	19471
383.64059	19358
383.64676	19384
383.65295	19017
383.65912	18672
383.66528	18854
383.67145	18755
383.67761	19246
383.68381	19356
383.68997	19798
383.69614	19765
383.7023	19800
383.70847	19469
383.71463	19125
383.72079	18984
383.72699	18781
383.73315	18969
383.73932	19202
383.74548	19421
383.75165	19292
383.75781	19101
383.76401	18682
383.77017	18534
383.77634	18604
383.7825	18733
383.78867	19024
383.79483	19364
383.80099	19788
383.80719	19941
383.81335	19972
383.81952	20199
383.82568	19788
383.83185	19444
383.83801	19084
383.84418	18561
383.85034	18398
383.85654	18617
383.8627	18771
383.86887	19037
383.87503	19430
383.8812	19497
383.88736	19233
383.89352	18972
383.89969	18893
383.90585	18803
383.91202	18710
383.91821	18915
383.92438	19198
383.93054	19673
383.93671	19663
383.94287	19736
383.94904	19811
383.9552	19859
383.96136	19604
383.96753	19782
383.97369	19679
383.97986	19602
383.98605	19255
383.99222	19137
383.99838	18713
384.00455	18625
384.01071	18579
384.01688	18654
384.02304	18743
384.02921	18899
384.03537	19051
384.04153	19434
384.0477	19349
384.05386	19282
384.06003	19164
384.06619	19085
384.07236	19186
384.07852	19257
384.08469	19574
384.09088	20033
384.09705	19921
384.10321	19820
384.10938	19437
384.11554	19011
384.1217	18823
384.12787	18781
384.13403	18915
384.1402	19009
384.14636	19180
384.15253	19193
384.15869	19323
384.16486	19303
384.17102	19348
384.17719	19635
384.18335	19986
384.18951	20214
384.19568	20172
384.20184	19904
384.20801	19537
384.21417	19240
384.22034	19013
384.2265	18926
384.23267	18984
384.23883	19047
384.245	19130
384.25116	19257
384.25732	19087
384.26349	19032
384.26965	19045
384.27582	18942
384.28198	19059
384.28815	19590
384.29431	19635
384.30048	19751
384.30664	19643
384.31281	19529
384.31897	19299
384.32513	19369
384.3313	19470
384.33746	19725
384.34363	19911
384.34979	19473
384.35596	19579
384.36209	19302
384.36826	19470
384.37442	19701
384.38058	19760
384.38675	19691
384.39291	19558
384.39908	19272
384.40524	18998
384.41141	18915
384.41757	18842
384.42374	19054
384.4299	19184
384.43607	19472
384.44223	19527
384.44839	19628
384.45456	19717
384.46072	19524
384.46686	19610
384.47302	19829
384.47919	19828
384.48535	20017
384.49152	19560
384.49768	19232
384.50385	19034
384.51001	19015
384.51617	19292
384.52234	19312
384.5285	19416
384.53464	19531
384.5408	19712
384.54697	19834
384.55313	20056
384.5593	19932
384.56546	20013
384.57162	19921
384.57779	19624
384.58395	19548
384.59012	19377
384.59625	19428
384.60242	19267
384.60858	19690
384.61475	19485
384.62091	19537
384.62708	19661
384.63324	19822
384.6394	20228
384.64554	20483
384.6517	20363
384.65787	20000
384.66403	19902
384.6702	19676
384.67636	19382
384.68253	19653
384.68866	19735
384.69482	20036
384.70099	20203
384.70715	20485
384.71332	20412
384.71948	20116
384.72562	19727
384.73178	19470
384.73795	19301
384.74411	19164
384.75027	19242
384.75644	19070
384.76257	19208
384.76874	19217
384.7749	19714
384.78107	19741
384.78723	20086
384.7934	20118
384.79953	20021
384.80569	19811
384.81186	19738
384.81802	19927
384.82419	20033
384.83032	20062
384.83649	20213
384.84265	20298
384.84882	20162
384.85498	20038
384.86111	19812
384.86728	19297
384.87344	19233
384.87961	19292
384.88577	19436
384.89191	19742
384.89807	20509
384.90424	21381
384.9104	22236
384.91656	22801
384.9227	22250
384.92886	21636
384.93503	20689
384.94119	20182
384.94733	20093
384.95349	20411
384.95966	20756
384.96582	20844
384.97195	20729
384.97812	20258
384.98428	19949
384.99045	19705
384.99661	19818
385.00275	20137
385.00891	20471
385.01508	20847
385.02124	21166
385.02737	21242
385.03354	21250
385.0397	21107
385.04584	21032
385.052	21095
385.05817	20885
385.06433	20633
385.07047	20144
385.07663	19917
385.08279	19648
385.08896	19899
385.09509	20135
385.10126	20181
385.10742	20366
385.11356	20322
385.11972	20182
385.12589	20244
385.13205	20351
385.13818	20620
385.14435	20671
385.15051	20861
385.15665	21157
385.16281	21559
385.16898	21467
385.17511	21495
385.18127	21292
385.18744	21013
385.1936	20955
385.19974	20931
385.2059	21016
385.21207	21067
385.2182	21440
385.22437	21703
385.23053	22108
385.23666	22404
385.24283	22754
385.24899	22663
385.25513	21945
385.26129	21183
385.26746	20509
385.27359	20304
385.27975	20026
385.28592	19693
385.29205	19339
385.29822	19331
385.30438	19091
385.31052	19063
385.31668	19120
385.32285	19045
385.32898	19072
385.33514	19084
385.34131	19365
385.34744	19389
385.35361	19303
385.35974	19380
385.36591	19481
385.37207	19578
385.3782	19697
385.38437	19705
385.39053	19669
385.39667	19449
385.40283	19518
385.40897	19377
385.41513	19446
385.4213	19499
385.42743	19499
385.43359	19401
385.43976	19370
385.44589	19271
385.45206	19207
385.45819	19294
385.46436	19311
385.47052	19882
385.47665	20020
385.48282	20478
385.48895	20507
385.49512	20405
385.50128	20055
385.50742	19595
385.51358	19409
385.51971	19160
385.52588	19134
385.53201	19073
385.53818	18968
385.54434	19061
385.55048	19000
385.55664	19189
385.56277	19201
385.56894	19282
385.57507	19467
385.58124	19609
385.5874	19945
385.59354	19923
385.5997	19753
385.60583	19554
385.612	19293
385.61813	19329
385.6243	19073
385.63043	19115
385.6366	19158
385.64276	19145
385.6489	19205
385.65506	19232
385.66119	19270
385.66736	19415
385.67349	19381
385.67966	19415
385.68579	19486
385.69196	19590
385.69809	19869
385.70425	19713
385.71039	19643
385.71655	19313
385.72269	19262
385.72885	19098
385.73499	19204
385.74115	19181
385.74728	19201
385.75345	19162
385.75961	19153
385.76575	19028
385.77191	19163
385.77805	19160
385.78421	19302
385.79034	19619
385.79651	19986
385.80264	20102
385.80878	20242
385.81494	20077
385.82108	19644
385.82724	19547
385.83337	19353
385.83954	19187
385.84567	19199
385.85184	18947
385.85797	19150
385.86414	19201
385.87027	19349
385.87643	20103
385.88257	20771
385.88873	21835
385.89487	22755
385.90103	23093
385.90717	22617
385.9133	21794
385.91946	20703
385.9256	20030
385.93176	19760
385.9379	19421
385.94406	19375
385.9502	19322
385.95636	19342
385.96249	19354
385.96866	19187
385.97479	19480
385.98093	19461
385.98709	19555
385.99323	19845
385.99939	19952
386.00552	19905
386.01169	19999
386.01782	19803
386.02396	19814
386.03012	19986
386.03625	19897
386.04242	19740
386.04855	19520
386.05469	19560
386.06085	19388
386.06699	19328
386.07315	19303
386.07928	19621
386.08542	20085
386.09158	20325
386.09772	20589
386.10388	20581
386.11002	20312
386.11615	19919
386.12231	19586
386.12845	19573
386.13461	19763
386.14075	19933
386.14688	19965
386.15305	20055
386.15918	19989
386.16531	20104
386.17148	20400
386.17761	21211
386.18378	21279
386.18991	21194
386.19604	20888
386.20221	20216
386.20834	19789
386.21448	19405
386.22064	19297
386.22678	19056
386.23291	18878
386.23907	19138
386.24521	18819
386.25134	19067
386.25751	19131
386.26364	19282
386.26978	19463
386.27594	19591
386.28207	19548
386.28821	19293
386.29437	19286
386.30051	19123
386.30664	19119
386.31281	18921
386.31894	19072
386.32507	19166
386.33124	19453
386.33737	19852
386.34351	20469
386.34967	20810
386.3558	20991
386.36194	21018
386.3681	20645
386.37424	20151
386.38037	19587
386.38651	19466
386.39267	19160
386.3988	19131
386.40494	19123
386.4111	19148
386.41724	19197
386.42337	19356
386.42953	19377
386.43567	19504
386.4418	19676
386.44794	19886
386.4541	19812
386.46024	19813
386.46637	19759
386.4725	19468
386.47867	19269
386.4848	19123
386.49094	19028
386.4971	19096
386.50323	19063
386.50937	18957
386.5155	18896
386.52167	19052
386.5278	19188
386.53394	19345
386.54007	19594
386.54623	19583
386.55237	19423
386.5585	19286
386.56464	19184
386.5708	19270
386.57693	19210
386.58307	19305
386.5892	19068
386.59534	19229
386.6015	19043
386.60764	18994
386.61377	19255
386.6199	19427
386.62607	19521
386.6322	19399
386.63834	19471
386.64447	19344
386.6506	19298
386.65677	19133
386.6629	19167
386.66904	19041
386.67517	19179
386.6813	19237
386.68747	19248
386.6936	19115
386.69974	19181
386.70587	19553
386.71201	19614
386.71817	19981
386.7243	20353
386.73044	20633
386.73657	21113
386.74271	20893
386.74887	20413
386.755	19917
386.76114	19597
386.76727	19407
386.77341	19284
386.77954	19306
386.78571	19683
386.79184	19619
386.79797	19645
386.80411	19498
386.81024	19284
386.81638	19136
386.82254	19262
386.82867	19154
386.83481	19152
386.84094	19111
386.84708	19175
386.85321	19046
386.85934	19273
386.86551	19231
386.87164	19377
386.87778	19416
386.88391	19286
386.89005	19271
386.89618	19233
386.90231	19287
386.90845	19226
386.91461	19210
386.92075	19356
386.92688	19629
386.93301	20116
386.93915	20748
386.94528	21021
386.95142	20900
386.95755	20571
386.96371	20075
386.96985	19679
386.97598	19339
386.98212	19221
386.98825	19385
386.99438	19162
387.00052	19453
387.00665	19559
387.01279	19899
387.01892	20061
387.02505	20249
387.03122	20415
387.03735	20186
387.04349	20252
387.04962	19994
387.05576	19977
387.06189	19761
387.06802	19574
387.07416	19569
387.08029	19647
387.08643	20146
387.09256	20286
387.09869	20603
387.10483	20633
387.11096	20842
387.11713	21049
387.12326	20898
387.12939	20528
387.13553	20550
387.14166	20782
387.1478	21377
387.15393	22423
387.16006	23972
387.1662	25125
387.17233	25948
387.17847	26856
387.1846	27620
387.19073	28047
387.19687	28559
387.203	28296
387.20914	27780
387.21527	27162
387.22141	26395
387.22754	25874
387.23367	25223
387.23981	24322
387.24594	23788
387.25208	23636
387.25821	23029
387.26434	22580
387.27048	21748
387.27661	21086
387.28275	20887
387.28888	21908
387.29501	23146
387.30115	24205
387.30728	24648
387.31342	24308
387.31955	23528
387.32568	23004
387.33182	23000
387.33795	22696
387.34409	22122
387.35022	21197
387.35635	20296
387.36249	20003
387.36862	20176
387.37476	20648
387.38089	21397
387.38702	21277
387.39316	20979
387.39929	20504
387.40543	19783
387.41156	19721
387.41769	20118
387.42383	20940
387.42996	21878
387.4361	22268
387.44223	21908
387.44836	21072
387.45447	20342
387.4606	19817
387.46674	20236
387.47287	21001
387.479	21952
387.48514	22482
387.49127	22718
387.49741	23218
387.50354	23196
387.50967	22907
387.51581	22091
387.52194	21136
387.52808	20324
387.53421	19747
387.54031	19552
387.54645	19935
387.55258	20538
387.55872	20997
387.56485	20796
387.57098	20433
387.57712	19897
387.58325	19366
387.58939	19332
387.59552	19283
387.60162	19472
387.60776	20082
387.61389	20743
387.62003	21268
387.62616	21453
387.63229	21181
387.63843	20357
387.64456	19717
387.6507	19355
387.6568	19229
387.66293	19350
387.66907	19250
387.6752	19175
387.68134	19294
387.68747	19208
387.6936	19226
387.69971	19466
387.70584	19586
387.71198	20206
387.71811	21222
387.72424	22192
387.73038	22480
387.73651	22834
387.74261	22785
387.74875	22547
387.75488	22086
387.76102	21728
387.76715	21114
387.77328	20672
387.77939	20360
387.78552	20041
387.79166	19583
387.79779	19376
387.80392	19115
387.81006	19352
387.81616	19382
387.8223	19404
387.82843	19435
387.83456	19275
387.8407	19234
387.8468	19604
387.85294	19915
387.85907	20611
387.8652	21296
387.87134	21719
387.87744	21797
387.88358	22043
387.88971	22111
387.89584	21874
387.90198	21665
387.90808	21154
387.91422	20479
387.92035	19832
387.92648	19682
387.93262	19501
387.93872	19371
387.94485	19512
387.95099	19583
387.95712	19553
387.96323	19631
387.96936	19852
387.97549	20465
387.98163	21103
387.98773	21583
387.99387	21882
388	21801
388.00613	21451
388.01224	20869
388.01837	20591
388.02451	20641
388.03064	20786
388.03674	21571
388.04288	22177
388.04901	22583
388.05515	23019
388.06125	22907
388.06738	22679
388.07352	21873
388.07965	20978
388.08575	20267
388.09189	19964
388.09802	19824
388.10416	19716
388.11026	19673
388.11639	19633
388.12253	19674
388.12863	19817
388.13477	19699
388.1409	19738
388.14703	19714
388.15314	19963
388.15927	20271
388.16541	20651
388.17151	20847
388.17764	21037
388.18378	20935
388.18988	20505
388.19601	20168
388.20215	19988
388.20825	20049
388.21439	20108
388.22052	20116
388.22665	20168
388.23276	20276
388.23889	20190
388.24503	20270
388.25113	20389
388.25726	20370
388.2634	20369
388.2695	20446
388.27563	20507
388.28177	20576
388.28787	20698
388.29401	20821
388.30014	20972
388.30624	21152
388.31238	21159
388.31848	21443
388.32462	21712
388.33075	22075
388.33685	22425
388.34299	23051
388.34912	23845
388.35522	24111
388.36136	23681
388.36749	22807
388.3736	21474
388.37973	20412
388.38583	19474
388.39197	19113
388.3981	19097
388.40421	19084
388.41034	19045
388.41647	19051
388.42258	19097
388.42871	19302
388.43481	19904
388.44095	20416
388.44708	21131
388.45319	21410
388.45932	21758
388.46542	21707
388.47156	21284
388.47769	20675
388.4838	19991
388.48993	19431
388.49603	19083
388.50217	18960
388.5083	18952
388.5144	18882
388.52054	18984
388.52664	19070
388.53278	18961
388.53888	18985
388.54501	18949
388.55115	18951
388.55725	18982
388.56339	19054
388.56949	19004
388.57562	19231
388.58173	19197
388.58786	19126
388.59396	19225
388.6001	19047
388.60623	18973
388.61234	18962
388.61847	18982
388.62457	19074
388.63071	19322
388.63681	19811
388.64294	20105
388.64905	20447
388.65518	20762
388.66129	20981
388.66742	20713
388.67352	20435
388.67966	20048
388.68576	19435
388.69189	19050
388.69803	18905
388.70413	18846
388.71027	19012
388.71637	18989
388.7225	18985
388.72861	18995
388.73474	18898
388.74084	18910
388.74698	18875
388.75308	19017
388.75922	19027
388.76532	19064
388.77145	19212
388.77756	18988
388.78369	19032
388.78979	19009
388.79593	18976
388.80203	19109
388.80814	19146
388.81427	19211
388.82037	19138
388.82651	19091
388.83261	18900
388.83875	18878
388.84485	18944
388.85098	18893
388.85709	18839
388.86322	19070
388.86932	18939
388.87546	19182
388.88156	19170
388.8877	19278
388.8938	19632
388.8999	20664
388.90604	22380
388.91214	24792
388.91827	27019
388.92438	28972
388.93051	29924
388.93661	29943
388.94272	28760
388.94885	26988
388.95496	25439
388.96109	23825
388.96719	22500
388.97333	21108
388.97943	20291
388.98553	19673
388.99167	20067
388.99777	21135
389.00391	22509
389.01001	23240
389.01611	23266
389.02225	22202
389.02835	20926
389.03448	20151
389.04059	19947
389.04672	20047
389.05283	20303
389.05893	20373
389.06506	20886
389.07117	21799
389.07727	23056
389.0834	23335
389.08951	22779
389.09564	21837
389.10175	20427
389.10785	19585
389.11398	19386
389.12009	19453
389.12619	20219
389.13232	21764
389.13843	23271
389.14456	24354
389.15067	24047
389.15677	22730
389.1629	21216
389.16901	19826
389.17511	19221
389.18124	18836
389.18735	18884
389.19345	18853
389.19958	18913
389.20569	18847
389.21179	18752
389.21793	18717
389.22403	18794
389.23013	18777
389.23627	18961
389.24237	18896
389.24847	18892
389.25461	19108
389.26071	19377
389.26682	20375
389.27295	21772
389.27905	23457
389.28516	24164
389.29129	23565
389.29739	22519
389.3035	21641
389.30963	21837
389.31573	22993
389.32184	24787
389.32794	26302
389.33408	26219
389.34018	24759
389.34628	22698
389.35242	20673
389.35852	19323
389.36462	19004
389.37073	18672
389.37686	18598
389.38297	18733
389.38907	18747
389.3952	18666
389.40131	18723
389.40741	18740
389.41351	18742
389.41965	18935
389.42575	18976
389.43185	19056
389.43796	18890
389.44409	18763
389.4502	18844
389.4563	18706
389.4624	18658
389.46854	18550
389.47464	18725
389.48074	18620
389.48685	18744
389.49298	18792
389.49908	18822
389.50519	19076
389.51129	19629
389.51743	21169
389.52353	23106
389.52963	25152
389.53574	25722
389.54187	25262
389.54797	24315
389.55408	23993
389.56018	24827
389.56628	26164
389.57242	26719
389.57852	25394
389.58463	23366
389.59073	21213
389.59683	19575
389.60297	18938
389.60907	18759
389.61517	18770
389.62128	18692
389.62738	18737
389.63351	18858
389.63962	18752
389.64572	18834
389.65182	18978
389.65793	18977
389.66406	19620
389.67017	20191
389.67627	20279
389.68237	20488
389.68848	20180
389.69458	19676
389.70071	19150
389.70682	18769
389.71292	18699
389.71902	18691
389.72513	18684
389.73123	18740
389.73737	18855
389.74347	18721
389.74957	18962
389.75568	19417
389.76178	20224
389.76788	21095
389.77399	21543
389.78012	21104
389.78622	20521
389.79233	19665
389.79843	19171
389.80453	19148
389.81064	19884
389.81674	21545
389.82285	23614
389.82898	25617
389.83508	26076
389.84119	25700
389.84729	25251
389.85339	25537
389.8595	26457
389.8656	26860
389.8717	25812
389.87781	23608
389.88394	21276
389.89005	19636
389.89615	19024
389.90225	18783
389.90836	18715
389.91446	18708
389.92056	18704
389.92667	18823
389.93277	18840
389.93887	18799
389.94498	18889
389.95111	19106
389.95721	19054
389.96332	19007
389.96942	19016
389.97552	18855
389.98163	18725
389.98773	18724
389.99384	18604
389.99994	18967
390.00604	18940
390.01215	19139
390.01825	19115
390.02435	19073
390.03046	18953
390.03656	18805
390.04266	18818
390.0488	18768
390.0549	18714
390.061	18860
390.06711	18980
390.07321	18841
390.07932	18816
390.08542	18720
390.09152	18817
390.09763	18742
390.10373	18733
390.10983	18593
390.11594	18895
390.12204	18661
390.12814	18719
390.13425	18708
390.14035	18761
390.14645	18751
390.15256	18957
390.15866	19377
390.16476	20406
390.17087	22207
390.17697	24645
390.18307	26010
390.18918	26624
390.19528	26796
390.20139	27531
390.20749	28782
390.21359	28959
390.2197	27854
390.2258	25700
390.2319	22910
390.23801	20763
390.24411	19744
390.25021	19522
390.25632	19546
390.26242	19862
390.26852	20396
390.27463	21030
390.28073	22040
390.28683	22161
390.29294	21791
390.29901	20845
390.30511	19951
390.31122	19107
390.31732	18704
390.32343	18763
390.32953	18845
390.33563	18922
390.34174	18978
390.34784	18927
390.35394	18826
390.36005	18845
390.36615	18865
390.37225	18734
390.37836	18694
390.38446	18547
390.39056	18566
390.39664	18617
390.40274	18610
390.40884	18615
390.41495	18680
390.42105	18715
390.42715	18791
390.43326	18634
390.43936	18577
390.44547	18729
390.45157	18592
390.45767	18589
390.46375	18717
390.46985	18640
390.47595	18653
390.48206	18607
390.48816	18633
390.49426	18554
390.50037	18765
390.50647	18655
390.51257	18579
390.51865	18604
390.52475	18750
390.53085	18705
390.53696	18719
390.54306	18742
390.54916	18694
390.55527	18742
390.56137	18875
390.56744	19362
390.57355	20752
390.57965	22986
390.58575	25340
390.59186	27075
390.59796	27909
390.60403	28417
390.61014	28720
390.61624	27696
390.62234	25754
390.62845	23441
390.63455	21031
390.64066	19450
390.64673	18852
390.65283	18649
390.65894	18743
390.66504	18664
390.67114	18894
390.67722	18628
390.68332	18726
390.68942	18676
390.69553	18683
390.70163	18646
390.70773	18592
390.71381	18668
390.71991	18616
390.72601	18503
390.73212	18536
390.73822	18587
390.74429	18637
390.7504	18505
390.7565	18755
390.7626	18778
390.76871	18752
390.77478	19033
390.78088	19492
390.78699	20220
390.79309	21206
390.79916	21812
390.80527	21659
390.81137	20913
390.81747	20229
390.82358	19467
390.82965	19509
390.83575	20280
390.84186	21474
390.84796	22292
390.85403	22386
390.86014	21781
390.86624	20431
390.87234	19505
390.87842	18930
390.88452	18608
390.89063	18587
390.89673	18627
390.9028	18546
390.90891	18627
390.91501	18810
390.92111	18909
390.92719	18828
390.93329	18931
390.93939	18997
390.94547	18847
390.95157	18801
390.95767	18683
390.96378	18657
390.96985	18747
390.97595	18685
390.98206	18697
390.98813	18738
390.99423	18929
391.00034	18700
391.00644	18860
391.01251	18667
391.01862	18789
391.02472	18956
391.03079	19320
391.0369	20177
391.043	21939
391.04907	24550
391.05518	26573
391.06128	28063
391.06735	28714
391.07346	28962
391.07956	27648
391.08563	25794
391.09174	23438
391.09784	21019
391.10391	19682
391.11002	18995
391.11612	18946
391.12219	18970
391.1283	18800
391.1344	18784
391.14047	18736
391.14658	18553
391.15268	18804
391.15875	18619
391.16486	18692
391.17096	18741
391.17703	18685
391.18314	18626
391.18924	18487
391.19531	18617
391.20142	18479
391.20749	18646
391.21359	18486
391.2197	18573
391.22577	18705
391.23187	18699
391.23798	18827
391.24405	18659
391.25015	18658
391.25623	18649
391.26233	18727
391.26843	18611
391.27451	18736
391.28061	18805
391.28668	18769
391.29279	18813
391.29889	18608
391.30496	18711
391.31107	18536
391.31714	18654
391.32324	18635
391.32935	18583
391.33542	18561
391.34152	18666
391.3476	18535
391.3537	18663
391.35977	18668
391.36588	18639
391.37198	18645
391.37805	18605
391.38416	18571
391.39023	18551
391.39633	18673
391.4024	19076
391.40851	19959
391.41461	20978
391.42068	21995
391.42679	22320
391.43286	21684
391.43896	20790
391.44504	20281
391.45114	20690
391.45721	22039
391.46332	22770
391.46939	22789
391.47549	21946
391.4816	20730
391.48767	19622
391.49377	18878
391.49985	18589
391.50595	18501
391.51202	18516
391.51813	18617
391.5242	18592
391.5303	18546
391.53638	18551
391.54248	18582
391.54855	18644
391.55466	18770
391.56073	19433
391.56683	20654
391.57291	22771
391.57901	25116
391.58508	27287
391.59119	28552
391.59726	29120
391.60336	27986
391.60944	25560
391.61554	23204
391.62161	20989
391.62772	19622
391.63379	19039
391.63989	18956
391.64597	18932
391.65204	18781
391.65814	18695
391.66422	18650
391.67032	18576
391.67639	18497
391.6825	18654
391.68857	18466
391.69467	18541
391.70074	18422
391.70685	18578
391.71292	18541
391.71899	18532
391.7251	18700
391.73117	18689
391.73727	18422
391.74335	18623
391.74945	18474
391.75552	18515
391.7616	18400
391.7677	18419
391.77377	18477
391.77988	18408
391.78595	18698
391.79205	18449
391.79813	18551
391.8042	18892
391.8103	19322
391.81638	19711
391.82248	19802
391.82855	19516
391.83463	19024
391.84073	18732
391.8468	18600
391.85291	18339
391.85898	18297
391.86505	18321
391.87115	18231
391.87723	18258
391.88333	18265
391.8894	18332
391.89548	18362
391.90158	18302
391.90765	18335
391.91373	18338
391.91983	18389
391.9259	18351
391.93201	18252
391.93808	18218
391.94415	18297
391.95026	18380
391.95633	18263
391.9624	18280
391.96851	18202
391.97458	18353
391.98065	18503
391.98676	18287
391.99283	18302
391.9989	18270
392.005	18334
392.01108	18190
392.01715	18243
392.02325	18281
392.02933	18400
392.0354	18299
392.0415	18427
392.04758	18306
392.05365	18357
392.05975	18406
392.06583	18498
392.0719	18980
392.078	19693
392.08408	20990
392.09015	22233
392.09625	22437
392.10233	22146
392.1084	21496
392.11447	21414
392.12057	21973
392.12665	22820
392.13272	22828
392.13882	22138
392.1449	20899
392.15097	19954
392.15707	19831
392.16315	21095
392.16922	23339
392.17529	25830
392.1814	27562
392.18747	28236
392.19354	27801
392.19962	25707
392.20572	23215
392.21179	21017
392.21786	19505
392.22394	18736
392.23004	18441
392.23611	18393
392.24219	18659
392.24826	18587
392.25436	18578
392.26044	18391
392.26651	18360
392.27258	18298
392.27869	18451
392.28476	18314
392.29083	18332
392.29691	18334
392.30301	18398
392.30908	18313
392.31516	18583
392.32123	18540
392.32733	18248
392.3334	18385
392.33948	18332
392.34555	18295
392.35162	18109
392.35773	18285
392.3638	18428
392.36987	18315
392.37595	18236
392.38202	18105
392.38812	18186
392.3942	18094
392.40027	18237
392.40634	18285
392.41241	18355
392.41852	18190
392.42459	18168
392.43066	18333
392.43674	18226
392.44281	18446
392.44888	18340
392.45499	18490
392.46106	18646
392.46713	18699
392.47321	18551
392.47928	18441
392.48535	18395
392.49146	18324
392.49753	18374
392.5036	18354
392.50967	18471
392.51575	18179
392.52182	18392
392.52792	18392
392.534	18485
392.54007	18223
392.54614	18437
392.55222	18394
392.55829	18395
392.56436	18198
392.57043	18187
392.57654	18187
392.58261	18239
392.58868	18338
392.59476	18297
392.60083	18532
392.6069	18810
392.61298	19397
392.61905	19654
392.62515	19655
392.63123	19315
392.6373	18923
392.64337	18703
392.64944	18486
392.65552	18349
392.66159	18293
392.66766	18359
392.67374	18246
392.67981	18211
392.68591	18298
392.69199	18274
392.69806	18243
392.70413	18198
392.71021	18267
392.71628	18276
392.72235	18350
392.72842	18424
392.7345	18584
392.74057	18810
392.74664	18896
392.75272	18895
392.75879	18653
392.76486	18669
392.77097	18454
392.77704	18476
392.78311	18403
392.78918	18597
392.79526	19263
392.80133	20358
392.8074	21827
392.81348	22810
392.81955	23514
392.82562	24476
392.8317	26539
392.83777	29246
392.84384	32086
392.84991	33149
392.85599	31418
392.86206	28229
392.86813	24532
392.87421	21517
392.88028	19642
392.88635	18699
392.89243	18421
392.8985	18489
392.90457	18307
392.91064	18256
392.91672	18324
392.92279	18381
392.92886	18435
392.93494	18448
392.94101	18344
392.94708	18433
392.95316	18660
392.95923	18369
392.9653	18356
392.97137	18258
392.97745	18287
392.98352	18278
392.98959	18417
392.99567	18451
393.00174	18503
393.00781	18612
393.01389	18575
393.01996	18513
393.02603	18338
393.0321	18528
393.03818	18309
393.04425	18244
393.05032	18250
393.0564	18267
393.06247	18484
393.06851	18531
393.07458	18832
393.08066	19215
393.08673	19573
393.0928	19606
393.09888	19388
393.10495	19155
393.11102	18701
393.1171	18590
393.12317	18435
393.12924	18386
393.13531	18147
393.14139	18264
393.14746	18276
393.1535	18169
393.15958	18295
393.16565	18284
393.17172	18272
393.1778	18037
393.18387	18265
393.18994	18223
393.19601	18147
393.20209	18135
393.20816	18193
393.2142	18055
393.22028	18322
393.22635	18074
393.23242	18274
393.23849	18209
393.24457	18458
393.25064	18354
393.25671	18270
393.26279	18146
393.26883	18285
393.2749	18374
393.28098	18313
393.28705	18323
393.29312	18253
393.29919	18298
393.30527	18127
393.31131	18151
393.31738	18219
393.32346	18161
393.32953	18166
393.3356	18225
393.34167	18307
393.34772	18423
393.35379	18461
393.35986	18123
393.36594	18408
393.37201	18702
393.37808	18712
393.38412	18797
393.3902	18779
393.39627	18706
393.40234	18500
393.40842	18439
393.41449	18175
393.42053	18305
393.42661	18212
393.43268	18187
393.43875	18344
393.44482	18308
393.45087	18416
393.45694	18352
393.46301	18334
393.46909	18310
393.47516	18247
393.4812	18255
393.48727	18300
393.49335	18325
393.49942	18351
393.50549	18360
393.51154	18311
393.51761	18330
393.52368	18378
393.52975	18528
393.5358	18658
393.54187	18794
393.54794	18762
393.55402	18784
393.56006	19440
393.56613	21133
393.5722	24081
393.57828	27612
393.58432	30422
393.59039	31131
393.59647	30175
393.60254	28125
393.60858	26414
393.61465	24661
393.62073	23277
393.6268	21507
393.63284	20003
393.63892	19064
393.64499	18569
393.65106	18278
393.6571	18412
393.66318	18342
393.66925	18209
393.67529	18361
393.68137	18391
393.68744	18483
393.69351	18236
393.69955	18296
393.70563	18165
393.7117	18365
393.71774	18097
393.72382	18240
393.72989	18213
393.73593	18298
393.742	18409
393.74808	18422
393.75415	18464
393.76019	18627
393.76627	18307
393.77234	18525
393.77838	18362
393.78445	18405
393.79053	18299
393.79657	18311
393.80264	18476
393.80872	18548
393.81476	18390
393.82083	18402
393.8269	18426
393.83295	18499
393.83902	18356
393.84509	18362
393.85114	18304
393.85721	18399
393.86328	18309
393.86932	18306
393.8754	18225
393.88144	18241
393.88751	18229
393.89359	18314
393.89963	18362
393.9057	18480
393.91177	18487
393.91782	18401
393.92389	18439
393.92993	18370
393.936	18307
393.94208	18175
393.94812	18144
393.95419	18064
393.96027	18286
393.96631	18113
393.97238	17998
393.97842	18148
393.9845	18209
393.99057	18034
393.99661	18036
394.00269	18042
394.00873	18191
394.0148	18138
394.02084	18050
394.02692	18095
394.03299	18014
394.03903	18076
394.0451	18337
394.05115	18289
394.05722	18239
394.06329	18273
394.06934	18278
394.07541	18221
394.08145	18245
394.08752	18159
394.09357	18246
394.09964	18318
394.10568	18209
394.11176	18096
394.11783	18290
394.12387	18237
394.12994	18392
394.13599	18239
394.14206	18197
394.1481	18163
394.15417	18037
394.16022	18064
394.16629	18207
394.17233	18166
394.17841	18200
394.18445	18231
394.19052	18289
394.19656	18406
394.20264	18363
394.20868	18357
394.21475	18152
394.22083	18182
394.22687	18244
394.23294	18160
394.23898	17767
